#Arquivo Dados/Coleta99.txt 
#Parâmetros(Ocupação: 99.000%, Capacidade: 356363.636 bps)
#Coleta|Ocupação|E(n)|E(w)|lambda|Little

100 96.96343 28.51874 0.28633 99.60000 -0.00000000001098499069
200 97.50995 36.66480 0.36886 99.40000 -0.00000000001163158458
300 97.55144 35.27126 0.35528 99.27667 -0.00000000005849187801
400 97.68118 32.86158 0.33130 99.19000 0.00000000002002309429
500 97.93475 40.33036 0.40591 99.35800 0.00000000007008083003
600 97.79359 43.72750 0.44013 99.35167 0.00000000010572875908
700 98.07523 47.93021 0.48157 99.52857 0.00000000002614086725
800 98.31455 62.99019 0.63098 99.82875 0.00000000020359891550
900 98.47429 63.70225 0.63853 99.76444 0.00000000003428368700
1000 98.53708 62.18485 0.62270 99.86300 -0.00000000010498268921
1100 98.58584 60.56052 0.60585 99.95909 -0.00000000038276937175
1200 98.65589 60.84865 0.60777 100.11833 -0.00000000035183234104
1300 98.62586 61.91748 0.61889 100.04615 -0.00000000070461680934
1400 98.72349 77.09194 0.76973 100.15429 -0.00000000011444001302
1500 98.80897 88.25998 0.88100 100.18133 -0.00000000048990500545
1600 98.87955 91.38473 0.91270 100.12562 -0.00000000034624747514
1700 98.90084 89.47886 0.89347 100.14765 -0.00000000081864470758
1800 98.90174 88.33916 0.88157 100.20667 -0.00000000107286268758
1900 98.93966 87.08962 0.86897 100.22211 -0.00000000117964304991
2000 98.84141 85.18839 0.85043 100.17150 -0.00000000116709486520
2100 98.89655 85.96463 0.85780 100.21524 -0.00000000021240964543
2200 98.88779 86.28425 0.86088 100.22773 -0.00000000018074786112
2300 98.93637 94.47443 0.94278 100.20783 -0.00000000047539572279
2400 98.94035 93.91229 0.93727 100.19750 -0.00000000029574209748
2500 98.90923 91.31860 0.91142 100.19400 -0.00000000037658764995
2600 98.89092 89.22528 0.89085 100.15692 -0.00000000155333168550
2700 98.86969 87.60395 0.87486 100.13481 -0.00000000190512139397
2800 98.83275 85.94267 0.85849 100.10893 -0.00000000070743055858
2900 98.84057 84.51414 0.84436 100.09276 -0.00000000014173906493
3000 98.85434 83.67361 0.83572 100.12100 0.00000000009889333796
3100 98.89123 88.75937 0.88593 100.18774 0.00000000053201176797
3200 98.92595 98.03867 0.97853 100.18937 0.00000000119001697385
3300 98.95824 101.30383 1.01156 100.14576 0.00000000157966439929
3400 98.98907 101.41182 1.01233 100.17647 0.00000000158962620844
3500 99.01607 101.06448 1.00917 100.14657 0.00000000087848661678
3600 99.00219 100.07458 0.99910 100.16444 0.00000000001550404249
3700 99.02922 103.58231 1.03383 100.19297 0.00000000220936158257
3800 99.05466 105.88335 1.05701 100.17289 0.00000000085955775830
3900 99.07898 108.37902 1.08119 100.24026 0.00000000094006225027
4000 99.10222 110.07631 1.09825 100.22900 0.00000000242842190801
4100 99.11353 109.98533 1.09750 100.21439 0.00000000123617382997
4200 99.13474 109.84957 1.09630 100.20000 0.00000000017955414933
4300 99.06756 107.84599 1.07686 100.14837 0.00000000107088737877
4400 99.08017 106.61707 1.06446 100.16091 0.00000000049418247272
4500 99.08217 105.70321 1.05550 100.14511 0.00000000074338402101
4600 99.08550 104.63675 1.04500 100.13087 0.00000000012482814782
4700 99.09553 104.81794 1.04699 100.11362 0.00000000173250214175
4800 99.10285 104.46424 1.04309 100.14896 0.00000000114556542030
4900 99.07138 103.11522 1.02993 100.11837 0.00000000033597302718
5000 99.04220 101.67129 1.01552 100.11780 0.00000000146987133576
5100 99.06137 101.13738 1.01019 100.11725 -0.00000000028609292713
5200 99.07905 102.52195 1.02396 100.12288 -0.00000000234703634305
5300 99.08229 101.60583 1.01508 100.09660 -0.00000000260536126007
5400 99.06454 100.82049 1.00738 100.08167 -0.00000000346408057794
5500 99.02306 99.45000 0.99401 100.04964 -0.00000000099737462733
5600 99.02873 99.25631 0.99179 100.07786 -0.00000000042430770009
5700 99.04574 100.27410 1.00210 100.06421 0.00000000075084471973
5800 99.06188 100.98670 1.00921 100.06466 0.00000000292493496090
5900 99.07777 103.81640 1.03718 100.09525 0.00000000499795760334
6000 99.09316 108.35383 1.08235 100.10983 0.00000000712370251676
6100 99.10824 109.27292 1.09190 100.07623 0.00000000643453290650
6200 99.09985 108.13882 1.08046 100.08613 0.00000000457016824384
6300 99.10115 106.95466 1.06851 100.09746 0.00000000510252107233
6400 99.08557 105.72657 1.05633 100.08891 0.00000000517677278822
6500 99.06956 104.56847 1.04482 100.08231 0.00000000511045072926
6600 99.08402 105.16519 1.05065 100.09530 0.00000000617596640495
6700 99.07383 104.48457 1.04417 100.06493 0.00000000238875941250
6800 99.03946 103.26370 1.03200 100.06132 0.00000000363441188256
6900 99.05047 102.75421 1.02667 100.08449 0.00000000648022080441
7000 99.04466 102.05407 1.01989 100.06414 0.00000000679077061250
7100 99.03596 101.00073 1.00933 100.06662 0.00000000737713889976
7200 99.02874 99.93222 0.99860 100.07236 0.00000000869826521921
7300 99.03729 99.91671 0.99829 100.08808 0.00000001041512120992
7400 99.05029 101.31612 1.01235 100.08041 0.00000000710336678367
7500 99.06326 102.78877 1.02694 100.09253 0.00000000600762462000
7600 99.06989 102.54130 1.02459 100.08066 0.00000000853088977237
7700 99.03737 101.47203 1.01387 100.08338 0.00000000541301403700
7800 99.01782 100.67127 1.00590 100.08038 0.00000000567050051359
7900 99.01064 99.89411 0.99823 100.07139 0.00000000903176555767
8000 99.01657 99.20680 0.99128 100.07950 0.00000000725503923604
8100 99.02869 98.68174 0.98590 100.09346 0.00000000835731839288
8200 99.03872 98.77189 0.98674 100.09951 0.00000000881941275566
8300 99.04284 98.54649 0.98450 100.09771 0.00000000869852101459
8400 99.03944 97.90489 0.97806 100.10143 0.00000000800216071184
8500 99.04295 97.43715 0.97349 100.09012 0.00000000752497442136
8600 99.02681 96.55459 0.96476 100.08174 0.00000000778864261974
8700 99.01955 95.83489 0.95772 100.06598 0.00000000754469908770
8800 99.01790 95.07731 0.95009 100.07227 0.00000001038939956288
8900 98.99088 94.25950 0.94207 100.05573 0.00000000823622769985
9000 98.99194 93.65406 0.93600 100.05822 0.00000000704467595369
9100 98.98740 93.04669 0.92994 100.05692 0.00000000790770116055
9200 98.98368 92.55180 0.92497 100.05902 0.00000001073254907169
9300 98.98069 91.95666 0.91905 100.05645 0.00000000630254248790
9400 98.97192 91.23006 0.91177 100.05819 0.00000000357691476438
9500 98.97644 90.86446 0.90806 100.06463 -0.00000000244641285008
9600 98.98587 90.66478 0.90603 100.06833 -0.00000000452814674645
9700 98.97988 90.13552 0.90088 100.05227 -0.00000000831579427540
9800 98.96110 89.50465 0.89473 100.03592 -0.00000000726902271708
9900 98.96736 89.21795 0.89189 100.03283 -0.00000000857252757669
10000 98.95778 88.76984 0.88737 100.03750 -0.00000000337773542469
10100 98.95115 88.20670 0.88177 100.03327 -0.00000000877298589330
10200 98.95740 88.36532 0.88329 100.04059 -0.00000001043834174652
10300 98.96420 88.67584 0.88624 100.05835 -0.00000001381334868711
10400 98.97414 89.50314 0.89444 100.06663 -0.00000001712534469789
10500 98.98412 90.69253 0.90629 100.06962 -0.00000001768017909853
10600 98.98436 90.31718 0.90260 100.06387 -0.00000001766707669049
10700 98.99383 90.97469 0.90907 100.07421 -0.00000001732927046305
10800 99.00129 91.37151 0.91308 100.06963 -0.00000001243698477538
10900 98.98145 90.75781 0.90700 100.06321 -0.00000001452013975722
11000 98.99059 91.28350 0.91207 100.08364 -0.00000001096833557312
11100 98.99972 92.39560 0.92313 100.08910 -0.00000001094734614071
11200 98.98243 92.02905 0.91962 100.07330 -0.00000001381093284181
11300 98.99168 91.80124 0.91731 100.07646 -0.00000001498992219240
11400 98.99447 91.48429 0.91420 100.07079 -0.00000001421688011760
11500 98.99779 91.44310 0.91390 100.05852 -0.00000001870861865427
11600 98.97282 90.84449 0.90806 100.04190 -0.00000001983499942071
11700 98.97157 90.46739 0.90434 100.03735 -0.00000001933088356054
11800 98.97803 91.54520 0.91501 100.04822 -0.00000001973641872155
11900 98.98662 92.85252 0.92795 100.06168 -0.00000001836323804127
12000 98.99513 95.32609 0.95262 100.06767 -0.00000001548721684230
12100 99.00355 97.36634 0.97292 100.07653 -0.00000001642922597966
12200 99.01157 97.99115 0.97917 100.07557 -0.00000001271962446481
12300 99.01343 97.50578 0.97428 100.08016 -0.00000001113663472552
12400 99.00197 96.99199 0.96915 100.07903 -0.00000001131429883117
12500 98.99845 96.52451 0.96459 100.06792 -0.00000000957436441240
12600 98.98957 96.12088 0.96060 100.06381 -0.00000000738485539387
12700 98.98296 95.57306 0.95517 100.05866 -0.00000000630005558833
12800 98.98314 95.38130 0.95331 100.05305 -0.00000000892738682978
12900 98.98934 95.20465 0.95152 100.05496 -0.00000000852990922340
13000 98.98701 94.88956 0.94837 100.05523 -0.00000000867473204380
13100 98.99251 95.30531 0.95233 100.07573 -0.00000000870350902460
13200 98.98808 94.96380 0.94895 100.07242 -0.00000001154556628080
13300 98.99373 94.54362 0.94469 100.07910 -0.00000001087128964627
13400 98.98473 94.01637 0.93941 100.08067 -0.00000001477278033235
13500 98.98935 93.85379 0.93779 100.07985 -0.00000001999080723181
13600 98.99655 93.87099 0.93790 100.08625 -0.00000001583454434240
13700 98.99946 93.98834 0.93910 100.08372 -0.00000000955822088144
13800 98.99426 93.83828 0.93752 100.09239 -0.00000001967367779798
13900 99.00117 94.00308 0.93918 100.09094 -0.00000001523928006009
14000 98.98327 93.46466 0.93381 100.08914 -0.00000001639409674681
14100 98.97599 93.22086 0.93142 100.08489 -0.00000001448400155368
14200 98.98305 94.72577 0.94634 100.09725 -0.00000001196360699396
14300 98.99012 96.23205 0.96131 100.10483 -0.00000001161757268164
14400 98.99718 97.62079 0.97512 100.11174 -0.00000001339365951480
14500 99.00407 98.57303 0.98469 100.10552 -0.00000001934199644893
14600 99.00104 98.20307 0.98109 100.09603 -0.00000002023493550496
14700 98.98466 97.66658 0.97578 100.09116 -0.00000001752330547333
14800 98.97981 97.46827 0.97385 100.08588 -0.00000001798677828901
14900 98.97900 97.01310 0.96929 100.08631 -0.00000001979876174119
15000 98.97438 96.74656 0.96660 100.08940 -0.00000002402381937827
15100 98.97620 96.62746 0.96540 100.09020 -0.00000002439577428959
15200 98.98307 97.15105 0.97071 100.08283 -0.00000001682035133399
15300 98.97690 96.71369 0.96640 100.07601 -0.00000001818180805913
15400 98.97312 96.28105 0.96208 100.07636 -0.00000001705329566448
15500 98.97636 96.34007 0.96268 100.07439 -0.00000001961900863989
15600 98.98279 96.47181 0.96397 100.07788 -0.00000002161058887395
15700 98.98933 97.14205 0.97059 100.08510 -0.00000002169750246139
15800 98.99567 97.40911 0.97323 100.08829 -0.00000002217531402948
15900 98.99505 97.10394 0.97020 100.08635 -0.00000001706722230210
16000 98.99732 96.97366 0.96887 100.08994 -0.00000001373999225507
16100 99.00375 97.08189 0.96989 100.09596 -0.00000001338250399385
16200 99.00167 96.70043 0.96599 100.10469 -0.00000001164474383586
16300 98.98820 96.35048 0.96257 100.09712 -0.00000001360682233553
16400 98.98556 95.97540 0.95882 100.09732 -0.00000001538558080938
16500 98.99081 95.84586 0.95747 100.10297 -0.00000001392393755850
16600 98.99690 96.03228 0.95923 100.11434 -0.00000001562925433518
16700 99.00289 96.50185 0.96388 100.11826 -0.00000002513435504170
16800 99.00468 96.50746 0.96388 100.12357 -0.00000002077948124679
16900 99.01058 97.99442 0.97868 100.12911 -0.00000001708116315058
17000 99.01646 100.14914 1.00020 100.12947 -0.00000002815535538048
17100 99.02208 101.12880 1.01002 100.12532 -0.00000002546251209878
17200 99.02778 102.04468 1.01917 100.12483 -0.00000002982606872592
17300 99.03341 102.45899 1.02339 100.11723 -0.00000002215338668066
17400 99.03913 102.73086 1.02612 100.11598 -0.00000001795071113975
17500 99.04449 103.46065 1.03337 100.11977 -0.00000001664133719714
17600 99.04789 103.33807 1.03215 100.11903 -0.00000001331342502908
17700 99.04912 103.02949 1.02898 100.12791 -0.00000001136481841968
17800 99.04776 102.78675 1.02659 100.12410 -0.00000001433315333088
17900 99.04786 102.51097 1.02382 100.12570 -0.00000000910628727979
18000 99.05147 102.31499 1.02188 100.12411 -0.00000001163093088508
18100 99.05683 102.52785 1.02408 100.11696 -0.00000001382278469464
18200 99.05201 102.19042 1.02069 100.11923 -0.00000000780089237651
18300 99.03632 101.78049 1.01662 100.11694 -0.00000000893227536380
18400 99.03325 101.40045 1.01275 100.12391 -0.00000000969963309672
18500 99.03843 101.54888 1.01415 100.13168 -0.00000000669466260206
18600 99.04370 101.67002 1.01533 100.13446 -0.00000000748291029140
18700 99.04073 101.40771 1.01274 100.13230 -0.00000000680691414345
18800 99.03675 101.07528 1.00951 100.12309 0.00000000568270763779
18900 99.04186 101.22666 1.01093 100.13254 0.00000000363390029179
19000 99.02293 100.84049 1.00719 100.12016 0.00000000702658553564
19100 99.02815 101.17714 1.01046 100.13021 0.00000001443542885227
19200 99.03180 101.11701 1.00980 100.13552 0.00000002215902838998
19300 99.03647 101.25081 1.01114 100.13554 0.00000001794268200683
19400 99.03670 100.95983 1.00819 100.13938 0.00000003203220444448
19500 99.02121 100.56983 1.00436 100.13308 0.00000003663990355562
19600 99.01433 100.26209 1.00136 100.12612 0.00000003762781375372
19700 99.01463 100.10053 0.99974 100.12640 0.00000002817934330324
19800 99.00204 99.71794 0.99602 100.11662 0.00000002058575887531
19900 98.98071 99.29003 0.99183 100.10799 0.00000001977689123578
20000 98.98360 99.06570 0.98962 100.10430 0.00000000995127891201
20100 98.98319 98.77662 0.98679 100.09915 0.00000000359831631158
20200 98.98605 98.83701 0.98745 100.09297 0.00000001626492007745
20300 98.97786 98.64540 0.98561 100.08542 0.00000000853148662827
20400 98.97537 98.42047 0.98333 100.08902 0.00000001742716904118
20500 98.98029 98.70943 0.98609 100.10137 0.00000003368583634256
20600 98.98423 98.89845 0.98803 100.09689 0.00000004121473295982
20700 98.98321 98.78893 0.98692 100.09807 0.00000003873262244269
20800 98.98813 99.20712 0.99106 100.10188 0.00000003677850202166
20900 98.98104 99.24448 0.99147 100.09866 0.00000003573231310838
21000 98.98542 99.09414 0.98997 100.09805 0.00000002446429903102
21100 98.97270 98.73506 0.98650 100.08645 0.00000003247922109040
21200 98.97028 98.57890 0.98498 100.08245 0.00000003369935086539
21300 98.96518 98.22415 0.98148 100.07709 0.00000003475845744561
21400 98.96541 98.43310 0.98353 100.08140 0.00000003329758158088
21500 98.97018 99.68169 0.99591 100.09140 0.00000002530514109367
21600 98.97493 100.82428 1.00734 100.08981 0.00000003171706453031
21700 98.97975 102.23961 1.02151 100.08677 0.00000003145254368064
21800 98.98436 102.46781 1.02389 100.07725 0.00000002958293521260
21900 98.98911 102.26713 1.02185 100.08005 0.00000002249906572160
22000 98.98610 101.99086 1.01911 100.07845 0.00000002948981148165
22100 98.98825 101.95404 1.01883 100.07014 0.00000002197569415330
22200 98.98982 101.69210 1.01622 100.06896 0.00000001974525787318
22300 98.98881 101.42764 1.01354 100.07220 0.00000002365993623243
22400 98.98273 101.14206 1.01077 100.06455 0.00000001765968704603
22500 98.97515 100.81806 1.00754 100.06320 0.00000002348333794089
22600 98.97416 100.62417 1.00565 100.05898 0.00000002534193299653
22700 98.97281 100.31966 1.00258 100.06128 0.00000001660710324813
22800 98.97732 100.37731 1.00312 100.06526 0.00000001009084371617
22900 98.98190 100.36964 1.00304 100.06533 0.00000000902797125946
23000 98.98098 100.18988 1.00128 100.06196 0.00000001145757266841
23100 98.97798 99.89755 0.99838 100.05987 0.00000000943218481098
23200 98.97309 99.66657 0.99604 100.06254 0.00000000455173676528
23300 98.97095 99.42168 0.99358 100.06408 0.00000001302822738580
23400 98.97409 99.36647 0.99300 100.06739 0.00000000531908028734
23500 98.97858 99.42140 0.99350 100.07187 0.00000000558401325179
23600 98.98279 99.62536 0.99553 100.07318 0.00000001276883665469
23700 98.98707 100.40351 1.00326 100.07709 0.00000001044780617576
23800 98.99136 101.47976 1.01395 100.08395 0.00000000728242355308
23900 98.99555 102.36098 1.02279 100.07967 0.00000000654554810353
24000 98.99975 102.56128 1.02480 100.07975 -0.00000000011144152268
24100 99.00305 102.42168 1.02339 100.08062 0.00000000461962201825
24200 99.00671 102.65431 1.02566 100.08628 0.00000000221443485771
24300 99.00887 102.67881 1.02598 100.07918 0.00000000174250658347
24400 99.00775 102.42509 1.02346 100.07775 -0.00000000017003287667
24500 99.00289 102.09981 1.02023 100.07535 0.00000000016967760530
24600 99.00131 101.89795 1.01826 100.07073 0.00000000673260558415
24700 98.99322 101.59881 1.01534 100.06340 -0.00000000172059344550
24800 98.98525 101.30793 1.01246 100.06101 -0.00000000076019546214
24900 98.98659 101.19626 1.01140 100.05610 0.00000000202808791983
25000 98.98538 100.93188 1.00878 100.05356 -0.00000000048341064485
25100 98.98618 100.77760 1.00727 100.05028 -0.00000000088287777089
25200 98.98811 100.60976 1.00559 100.05028 0.00000000107949915673
25300 98.99203 100.50734 1.00459 100.04806 0.00000000188468618489
25400 98.99197 100.30147 1.00254 100.04693 0.00000000071764816312
25500 98.99591 100.34109 1.00297 100.04376 -0.00000000363594665487
25600 98.99988 100.81406 1.00764 100.04941 -0.00000000983601466942
25700 99.00232 101.00199 1.00957 100.04482 -0.00000000383670339943
25800 99.00204 100.81594 1.00770 100.04570 -0.00000000385060161534
25900 98.99645 100.56109 1.00522 100.03907 -0.00000000820654122435
26000 98.99120 100.28999 1.00253 100.03723 -0.00000000781696485319
26100 98.99509 100.56213 1.00520 100.04142 -0.00000001284030304305
26200 98.99491 100.52852 1.00485 100.04321 -0.00000000995777327262
26300 98.99320 100.41718 1.00379 100.03821 -0.00000000824067569738
26400 98.99465 100.20250 1.00162 100.04080 -0.00000000193604421383
26500 98.99445 100.04958 1.00007 100.04279 -0.00000001453662434869
26600 98.99631 100.11006 1.00069 100.04098 0.00000000775877140313
26700 98.99856 100.12720 1.00086 100.04165 -0.00000000720744708360
26800 98.99129 99.93757 0.99897 100.04030 0.00000000611558448327
26900 98.98411 99.68105 0.99643 100.03810 0.00000002642052265855
27000 98.98794 99.73052 0.99692 100.03841 0.00000001580791320066
27100 98.98895 99.70667 0.99670 100.03701 0.00000000177774950316
27200 98.99187 99.73361 0.99693 100.04081 0.00000001175597219572
27300 98.99566 99.72631 0.99685 100.04139 0.00000001323782328200
27400 98.99199 99.55928 0.99518 100.04120 0.00000001933391047260
27500 98.99249 99.46331 0.99420 100.04360 0.00000002382192576533
27600 98.99622 99.73774 0.99688 100.04946 0.00000002318509473298
27700 98.99980 100.46102 1.00411 100.04996 0.00000002039924140718
27800 99.00341 101.01078 1.00964 100.04658 0.00000001718048281418
27900 99.00152 100.88429 1.00844 100.03989 0.00000000384991949431
28000 99.00492 100.82839 1.00789 100.03889 0.00000000272106603916
28100 99.00844 100.74372 1.00701 100.04206 0.00000000218597051571
28200 99.01039 100.61337 1.00571 100.04202 0.00000001041470909513
28300 99.00902 100.44911 1.00408 100.04134 0.00000001434121088550
28400 99.01245 100.80502 1.00758 100.04641 0.00000000779384379257
28500 99.01591 100.98977 1.00941 100.04853 0.00000000238314612488
28600 99.01517 100.91802 1.00870 100.04724 -0.00000000047162984629
28700 99.01609 100.79439 1.00747 100.04714 -0.00000000593323079556
28800 99.01952 100.74848 1.00698 100.05056 -0.00000000780102027420
28900 99.02122 100.58345 1.00530 100.05291 -0.00000000318981108194
29000 99.02458 100.72784 1.00671 100.05621 -0.00000000836253377656
29100 99.02791 100.98044 1.00921 100.05887 -0.00000001505429736426
29200 99.03123 101.21182 1.01154 100.05716 -0.00000002868426918212
29300 99.02732 101.05718 1.01004 100.05276 -0.00000002099410778555
29400 99.03032 100.96174 1.00908 100.05327 -0.00000001532029614282
29500 99.03361 100.92338 1.00873 100.04959 -0.00000000933530941438
29600 99.02694 100.66001 1.00612 100.04767 -0.00000000359240459602
29700 99.02317 100.46507 1.00417 100.04798 -0.00000000816405076876
29800 99.02591 100.33065 1.00281 100.05000 -0.00000002094007811593
29900 99.02291 100.12756 1.00080 100.04796 -0.00000002323726278064
30000 99.01647 99.85158 0.99807 100.04433 -0.00000002421255373974
30100 99.01471 99.63996 0.99596 100.04449 -0.00000001958248674327
30200 99.00503 99.38268 0.99340 100.04281 -0.00000002446098790188
30300 99.00831 99.35820 0.99317 100.04195 -0.00000001917530312312
30400 99.00435 99.14121 0.99099 100.04240 -0.00000001409658523244
30500 99.00683 98.98298 0.98939 100.04456 -0.00000000606920025348
30600 99.00048 98.76937 0.98728 100.04160 -0.00000001649058845032
30700 99.00372 98.96980 0.98927 100.04316 -0.00000002131318410648
30800 99.00693 99.30660 0.99260 100.04721 -0.00000002372529195327
30900 99.01016 99.52805 0.99486 100.04243 0.00000000094544816420
31000 99.01344 99.55622 0.99511 100.04519 0.00000001313587461027
31100 99.01562 99.43199 0.99382 100.05029 0.00000000036175151763
31200 99.01227 99.28207 0.99238 100.04455 0.00000001285833661768
31300 99.01069 99.10297 0.99060 100.04367 0.00000002545002075749
31400 99.01378 99.27125 0.99227 100.04471 0.00000002327672632418
31500 99.01646 99.16959 0.99124 100.04638 0.00000003394805503376
31600 99.01725 99.11033 0.99062 100.04886 0.00000002887733785428
31700 99.01660 98.95290 0.98906 100.04757 0.00000002049250724667
31800 99.01759 98.87642 0.98830 100.04733 0.00000003246584867611
31900 99.01245 98.66165 0.98617 100.04539 0.00000003109062163276
32000 99.01285 98.59037 0.98543 100.04778 0.00000003266488590725
32100 99.01600 98.84176 0.98795 100.04707 0.00000002360572182170
32200 99.01900 99.19066 0.99146 100.04488 0.00000000186817317172
32300 99.02202 99.25173 0.99209 100.04313 0.00000000149660195348
32400 99.02241 99.06183 0.99015 100.04691 -0.00000000605389516295
32500 99.02266 98.94529 0.98897 100.04929 -0.00000000497988139614
32600 99.02513 98.85565 0.98805 100.05129 0.00000000769520624999
32700 99.01876 98.69348 0.98649 100.04554 0.00000002566176249275
32800 99.01950 98.54392 0.98496 100.04902 0.00000003405438064874
32900 99.01741 98.38283 0.98337 100.04657 0.00000002576061319814
33000 99.02040 98.33531 0.98286 100.05012 0.00000001058913312590
33100 99.02337 98.46120 0.98405 100.05707 0.00000000073072214946
33200 99.02138 98.35897 0.98309 100.05063 -0.00000000117810827760
33300 99.02339 98.34088 0.98287 100.05517 -0.00000000150748746819
33400 99.02593 98.27130 0.98218 100.05380 0.00000000100047259366
33500 99.02249 98.06259 0.98010 100.05325 0.00000000324970983456
33600 99.02540 98.32619 0.98269 100.05792 -0.00000000584374504342
33700 99.02813 98.33901 0.98281 100.05864 -0.00000001132676175075
33800 99.03095 98.40673 0.98352 100.05533 -0.00000001888086842428
33900 99.03310 98.42270 0.98363 100.06053 -0.00000001171633812191
34000 99.03451 98.27576 0.98217 100.05959 -0.00000000526893018105
34100 99.03012 98.06350 0.98007 100.05751 -0.00000002282318689595
34200 99.03058 97.91054 0.97853 100.05854 -0.00000002378196484187
34300 99.03341 98.16374 0.98101 100.06359 -0.00000001014726080939
34400 99.03628 98.33451 0.98272 100.06326 -0.00000000408921607686
34500 99.03818 98.18882 0.98127 100.06270 0.00000001041102848376
34600 99.03990 98.06503 0.98002 100.06445 0.00000000655329301935
34700 99.04137 97.96396 0.97901 100.06444 0.00000001036744379235
34800 99.03512 97.76006 0.97699 100.06241 0.00000001294201013025
34900 99.03631 97.64111 0.97582 100.06057 0.00000001278172589991
35000 99.02304 97.40181 0.97349 100.05391 0.00000002077240424114
35100 99.02100 97.22027 0.97173 100.04877 0.00000001797425852601
35200 99.01750 97.03559 0.96992 100.04477 0.00000000805570721241
35300 99.01069 96.84453 0.96805 100.04105 0.00000001368483992792
35400 99.00518 96.66646 0.96630 100.03754 0.00000001196198695652
35500 99.00582 96.61545 0.96574 100.04259 0.00000000573245984015
35600 99.00859 97.20461 0.97154 100.05216 0.00000001465451759941
35700 99.01139 97.99972 0.97950 100.05073 0.00000002392025066911
35800 99.00947 97.88881 0.97845 100.04517 0.00000001982458286420
35900 99.00893 97.78957 0.97744 100.04713 0.00000001250683112630
36000 99.01169 97.94364 0.97893 100.05139 0.00000001584027131685
36100 99.01445 98.15013 0.98101 100.05006 0.00000002579477609288
36200 99.01715 98.59941 0.98549 100.05086 0.00000002396230058821
36300 99.01806 98.49506 0.98447 100.04884 0.00000003720992935996
36400 99.01092 98.28196 0.98237 100.04555 0.00000002702974200020
36500 99.01045 98.23069 0.98184 100.04737 0.00000001990684950215
36600 99.01141 98.18198 0.98136 100.04650 0.00000001480348998939
36700 99.01411 98.27111 0.98224 100.04757 0.00000001712976427370
36800 99.01679 98.39881 0.98353 100.04647 0.00000000229786678574
36900 99.01482 98.21553 0.98170 100.04593 -0.00000000232002150824
37000 99.01669 98.13996 0.98093 100.04776 -0.00000000247189291258
37100 99.01820 98.01903 0.97974 100.04620 0.00000001017504303036
37200 99.01619 97.93981 0.97895 100.04624 0.00000002835051304828
37300 99.00978 97.78426 0.97746 100.03928 0.00000004613220028205
37400 99.01105 97.81628 0.97778 100.03877 0.00000005868984942481
37500 99.00732 97.64405 0.97607 100.03808 0.00000005698689165001
37600 99.00431 97.47383 0.97439 100.03601 0.00000005393545166044
37700 99.00350 97.34661 0.97311 100.03711 0.00000007774494292789
37800 99.00063 97.17540 0.97141 100.03571 0.00000007527360423865
37900 98.99432 96.97479 0.96943 100.03330 0.00000009464771721923
38000 98.99506 96.89114 0.96857 100.03526 0.00000010080663059853
38100 98.99769 97.27229 0.97235 100.03853 0.00000009799538247535
38200 98.99883 97.16515 0.97128 100.03859 0.00000010805399597302
38300 98.99959 97.14267 0.97102 100.04144 0.00000012221535428125
38400 99.00219 97.31073 0.97267 100.04505 0.00000012592018094892
38500 99.00477 97.68581 0.97642 100.04486 0.00000011805535393705
38600 99.00736 98.16656 0.98122 100.04503 0.00000010204145439729
38700 99.00974 98.23675 0.98192 100.04509 0.00000008494590986174
38800 99.01228 98.25248 0.98208 100.04570 0.00000008420616381954
38900 99.00600 98.05336 0.98010 100.04427 0.00000007900162302121
39000 99.00696 98.01748 0.97971 100.04764 0.00000006397814900083
39100 99.00598 97.89969 0.97853 100.04803 0.00000006715296763105
39200 99.00747 97.88771 0.97841 100.04793 0.00000005995148910642
39300 99.00999 97.93651 0.97888 100.04939 0.00000007217063568987
39400 99.00733 97.82908 0.97783 100.04741 0.00000005736782782151
39500 99.00402 97.67130 0.97624 100.04797 0.00000006634728322297
39600 99.00498 97.60443 0.97558 100.04783 0.00000007621247277712
39700 98.99915 97.44971 0.97407 100.04363 0.00000006314535028196
39800 98.99948 97.45110 0.97405 100.04721 0.00000001707471142254
39900 99.00083 97.50858 0.97466 100.04373 0.00000001519563852526
40000 98.99973 97.36787 0.97328 100.04082 -0.00000000883706263721
40100 98.99346 97.17543 0.97142 100.03456 -0.00000000957410861702
40200 98.98935 96.99514 0.96965 100.03065 -0.00000001751809008965
40300 98.98953 96.89214 0.96864 100.02898 -0.00000002656052799921
40400 98.99114 96.80625 0.96778 100.02953 -0.00000001738871446832
40500 98.99227 96.73426 0.96705 100.03032 -0.00000003304572260276
40600 98.99475 97.03398 0.97003 100.03239 -0.00000002968469914322
40700 98.99722 97.33462 0.97303 100.03258 -0.00000002767104945178
40800 98.99973 97.39181 0.97359 100.03343 -0.00000002162038015285
40900 98.99835 97.24790 0.97219 100.03015 -0.00000000711419545496
41000 98.99803 97.10141 0.97074 100.02868 -0.00000000574208058879
41100 98.99314 96.92913 0.96906 100.02367 0.00000002193452530719
41200 98.99460 97.05466 0.97030 100.02568 0.00000002184498271163
41300 98.99704 97.82912 0.97799 100.03029 0.00000001010077710362
41400 98.99944 98.89087 0.98858 100.03365 -0.00000000499338170812
41500 99.00192 99.76751 0.99734 100.03318 -0.00000001752755451889
41600 99.00424 100.55811 1.00526 100.03163 -0.00000002584137348549
41700 99.00666 101.07406 1.01043 100.03060 -0.00000002897525064327
41800 99.00903 101.23935 1.01207 100.03208 -0.00000003043118113055
41900 99.01139 101.43938 1.01403 100.03539 -0.00000004734044978250
42000 99.00884 101.27885 1.01245 100.03298 -0.00000006093911508742
42100 99.00722 101.12534 1.01091 100.03425 -0.00000006291419651916
42200 99.00629 100.94395 1.00909 100.03512 -0.00000003969711315222
42300 98.99917 100.76063 1.00731 100.02943 -0.00000003025495232123
42400 99.00153 100.85616 1.00827 100.02901 -0.00000000786745601999
42500 99.00386 101.04932 1.01019 100.03049 -0.00000001503165947270
42600 99.00620 101.15561 1.01120 100.03540 -0.00000001085263079403
42700 99.00852 101.42614 1.01387 100.03824 0.00000001438901620077
42800 99.00788 101.32504 1.01287 100.03734 0.00000000899727581327
42900 99.00635 101.15369 1.01117 100.03636 -0.00000000523115772921
43000 99.00321 100.97527 1.00939 100.03551 -0.00000000419471746227
43100 99.00475 100.86061 1.00825 100.03522 -0.00000001873691246601
43200 99.00164 100.72786 1.00694 100.03326 -0.00000001627084600386
43300 98.99850 100.54674 1.00513 100.03321 0.00000001262831972326
43400 98.99909 100.44697 1.00411 100.03532 0.00000002892804218391
43500 98.99870 100.28216 1.00248 100.03416 0.00000002411579202999
43600 98.99702 100.13899 1.00106 100.03280 0.00000002227339734873
43700 98.99694 99.98250 0.99949 100.03357 0.00000002459714210090
43800 98.99742 99.90136 0.99868 100.03361 0.00000002274232713262
43900 98.99898 99.95749 0.99919 100.03838 0.00000004680899223786
44000 99.00126 100.13113 1.00090 100.04066 0.00000005040776329679
44100 99.00351 100.18723 1.00144 100.04347 0.00000004796920904937
44200 99.00548 100.22502 1.00179 100.04595 0.00000004349577409357
44300 99.00771 100.56108 1.00511 100.04950 0.00000003578647067570
44400 99.00995 100.98561 1.00932 100.05266 0.00000005053128404597
44500 99.01217 101.28233 1.01231 100.05045 0.00000004517632135048
44600 99.01030 101.32771 1.01281 100.04596 0.00000003945802973249
44700 99.00971 101.22137 1.01174 100.04698 0.00000004368702377633
44800 99.01085 101.19419 1.01148 100.04578 0.00000002538915566674
44900 99.01048 101.06019 1.01016 100.04383 0.00000002198635229433
45000 99.01268 101.06715 1.01023 100.04400 0.00000003838550810542
45100 99.01420 101.02483 1.00982 100.04257 0.00000002181623415254
45200 99.01634 101.04983 1.01005 100.04454 0.00000002378148167281
45300 99.01429 100.93616 1.00893 100.04325 0.00000000816697820483
45400 99.01202 100.77929 1.00736 100.04319 0.00000001458867870952
45500 99.01298 100.76525 1.00720 100.04475 0.00000003255252067902
45600 99.01221 100.75811 1.00711 100.04689 0.00000003312989349524
45700 99.01437 101.10362 1.01055 100.04786 0.00000003720596453149
45800 99.01402 101.14510 1.01098 100.04653 0.00000003710775331456
45900 99.01450 101.02066 1.00971 100.04880 0.00000002671835375168
46000 99.01662 101.08596 1.01036 100.04972 0.00000001052129050549
46100 99.01758 101.04678 1.00995 100.05080 0.00000000705301772541
46200 99.01941 101.18070 1.01124 100.05613 0.00000001736373178574
46300 99.02156 101.32305 1.01269 100.05378 0.00000002615725236410
46400 99.02364 101.55390 1.01501 100.05235 0.00000000823195023258
46500 99.02239 101.42747 1.01375 100.05153 0.00000001654660763961
46600 99.02058 101.30059 1.01252 100.04848 0.00000001524384174445
46700 99.02109 101.17166 1.01120 100.05118 0.00000003371621914994
46800 99.02317 101.17899 1.01124 100.05427 0.00000000508418906975
46900 99.02471 101.07076 1.01016 100.05392 0.00000001571089569552
47000 99.02679 101.16447 1.01106 100.05787 0.00000000149702827912
47100 99.02887 101.27838 1.01220 100.05792 0.00000001064343280177
47200 99.03089 101.40703 1.01348 100.05801 0.00000001627140022720
47300 99.03295 101.66252 1.01601 100.06044 0.00000001288118767206
47400 99.03499 101.68881 1.01629 100.05897 0.00000002547282917931
47500 99.03451 101.61989 1.01561 100.05829 0.00000002606908822145
47600 99.03207 101.46034 1.01400 100.05950 0.00000001534873206310
47700 99.03036 101.32735 1.01269 100.05769 -0.00000000877302852587
47800 99.03112 101.22169 1.01165 100.05590 -0.00000000065938365879
47900 99.03230 101.13927 1.01081 100.05749 -0.00000002768015860966
48000 99.03389 101.06360 1.01007 100.05646 -0.00000001653094727772
48100 99.03557 101.00280 1.00946 100.05622 -0.00000001879665489923
48200 99.03322 100.87448 1.00820 100.05450 -0.00000001693531714864
48300 99.03306 100.76977 1.00716 100.05344 -0.00000000336119398980
48400 99.03466 100.72363 1.00667 100.05626 -0.00000000076693140727
48500 99.03666 100.71705 1.00660 100.05715 -0.00000000655639098568
48600 99.03669 100.67761 1.00620 100.05749 -0.00000001414427686086
48700 99.03868 100.70075 1.00644 100.05639 -0.00000001027746066029
48800 99.03989 100.68097 1.00624 100.05619 -0.00000002088333417305
48900 99.04068 100.71230 1.00655 100.05697 -0.00000002109111107984
49000 99.04059 100.63726 1.00580 100.05741 -0.00000002546299526784
49100 99.04185 100.60765 1.00548 100.05908 -0.00000002281979050167
49200 99.04340 100.55590 1.00493 100.06285 -0.00000000855099813180
49300 99.04529 100.82342 1.00757 100.06639 -0.00000001114571546168
49400 99.04723 101.35313 1.01282 100.07014 -0.00000000920984177810
49500 99.04916 101.92619 1.01855 100.07020 -0.00000001034442220771
49600 99.05107 102.30831 1.02234 100.07254 -0.00000000750573292407
49700 99.05283 102.41222 1.02340 100.07058 -0.00000000254263454735
49800 99.05235 102.26899 1.02199 100.06825 0.00000000687479939643
49900 99.05276 102.15244 1.02082 100.06936 0.00000001672863447766
50000 99.05157 102.01956 1.01951 100.06718 0.00000003902148648649
50100 99.05171 101.89193 1.01825 100.06609 0.00000003847819129987
50200 99.05123 101.78079 1.01711 100.06831 0.00000002474774873917
50300 99.05311 102.08388 1.02013 100.06920 0.00000003681746818529
50400 99.05499 102.35232 1.02276 100.07494 0.00000005057694352217
50500 99.05687 102.68116 1.02605 100.07469 0.00000005040458006533
50600 99.05876 102.78904 1.02710 100.07717 0.00000005545946635266
50700 99.06017 102.72745 1.02647 100.07815 0.00000005174462103241
50800 99.06197 102.67998 1.02597 100.08069 0.00000003263738790338
50900 99.06379 102.75088 1.02669 100.07963 0.00000003017146354978
51000 99.06274 102.71603 1.02634 100.07959 0.00000005112399037444
51100 99.06103 102.58864 1.02508 100.07908 0.00000003354476518780
51200 99.06204 102.50321 1.02420 100.08086 0.00000004462687286377
51300 99.06313 102.44722 1.02361 100.08400 0.00000003669291004371
51400 99.06495 102.49014 1.02401 100.08704 0.00000003366999123955
51500 99.06276 102.41971 1.02334 100.08373 0.00000003509659052270
51600 99.06325 102.31280 1.02227 100.08366 0.00000003106187307367
51700 99.05781 102.15808 1.02075 100.08174 0.00000005762647958818
51800 99.05715 102.15134 1.02066 100.08317 0.00000007225723663851
51900 99.05894 102.44292 1.02358 100.08316 0.00000005904182387440
52000 99.05864 102.44679 1.02369 100.07585 0.00000007692125336689
52100 99.05554 102.31993 1.02244 100.07441 0.00000009032186198965
52200 99.05377 102.21730 1.02141 100.07427 0.00000011389457199584
52300 99.05283 102.08267 1.02007 100.07375 0.00000012964544282568
52400 99.05138 101.96808 1.01892 100.07429 0.00000013399315434981
52500 99.05208 101.86617 1.01790 100.07474 0.00000013466880943724
52600 99.05175 101.76234 1.01685 100.07606 0.00000014661982561393
52700 99.05090 101.62279 1.01543 100.07880 0.00000012873752552878
52800 99.05269 101.68913 1.01606 100.08222 0.00000015292657451482
52900 99.05442 101.91991 1.01833 100.08575 0.00000015390212126931
53000 99.05013 101.80074 1.01719 100.08075 0.00000017628983073337
53100 99.05129 101.73474 1.01650 100.08301 0.00000016904530752981
53200 99.04840 101.63335 1.01551 100.08081 0.00000014481331334082
53300 99.04509 101.49484 1.01415 100.07859 0.00000013457112402193
53400 99.04518 101.42485 1.01343 100.08110 0.00000014159503791689
53500 99.04485 101.34608 1.01265 100.07978 0.00000019478926560623
53600 99.04118 101.21081 1.01131 100.07925 0.00000018364150378147
53700 99.03676 101.08267 1.01005 100.07663 0.00000017848256561592
53800 99.03069 100.93396 1.00858 100.07500 0.00000019441537801868
53900 99.03079 100.82044 1.00747 100.07302 0.00000018174549154537
54000 99.02799 100.71952 1.00647 100.07156 0.00000016286644211050
54100 99.02759 100.65642 1.00585 100.07118 0.00000016234535848980
54200 99.02833 100.62054 1.00548 100.07258 0.00000014516737678605
54300 99.03002 100.54181 1.00468 100.07368 0.00000014450320406922
54400 99.02854 100.48346 1.00410 100.07289 0.00000011761913754071
54500 99.02916 100.53350 1.00463 100.07046 0.00000015070068570822
54600 99.02489 100.38694 1.00320 100.06718 0.00000014999505992819
54700 99.02468 100.27886 1.00212 100.06689 0.00000016232580435371
54800 99.02420 100.18877 1.00124 100.06485 0.00000014946539295124
54900 99.02347 100.11761 1.00051 100.06696 0.00000012466347243389
55000 99.02341 100.06977 1.00004 100.06536 0.00000011269723643181
55100 99.02330 100.04286 0.99977 100.06599 0.00000011898255536380
55200 99.02387 100.00712 0.99941 100.06607 0.00000009121100674747
55300 99.02513 100.10973 1.00040 100.06975 0.00000007164926785208
55400 99.02687 100.53154 1.00463 100.06856 0.00000009704163517199
55500 99.02863 100.86404 1.00794 100.06932 0.00000011210973127618
55600 99.03038 101.39862 1.01327 100.07113 0.00000010140435335870
55700 99.03213 102.18610 1.02113 100.07176 0.00000010459204702329
55800 99.03385 102.97098 1.02895 100.07360 0.00000011499034258122
55900 99.03559 103.82753 1.03750 100.07513 0.00000007944645119551
56000 99.03734 104.60318 1.04524 100.07618 0.00000005267742153592
56100 99.03902 105.16989 1.05095 100.07160 0.00000003885485000410
56200 99.04074 105.69313 1.05614 100.07505 0.00000005754029075433
56300 99.04246 106.28711 1.06207 100.07520 0.00000004889341198577
56400 99.04414 106.69144 1.06612 100.07434 0.00000005962687055217
56500 99.04356 106.62319 1.06545 100.07366 0.00000005744131215124
56600 99.04124 106.51883 1.06444 100.07014 0.00000005499192923253
56700 99.04215 106.44669 1.06371 100.07081 0.00000006941337460376
56800 99.04089 106.31480 1.06243 100.06732 0.00000004070490433605
56900 99.04004 106.22496 1.06152 100.06865 0.00000003965389794303
57000 99.04122 106.13343 1.06059 100.07061 0.00000004392673247366
57100 99.04236 106.08204 1.06005 100.07240 0.00000002810723742641
57200 99.04404 106.24014 1.06160 100.07544 0.00000001868330912203
57300 99.04570 106.35889 1.06280 100.07389 0.00000004154661326083
57400 99.04327 106.22393 1.06147 100.07258 0.00000003669464376799
57500 99.04285 106.13849 1.06061 100.07311 0.00000002359806217100
57600 99.04451 106.24008 1.06163 100.07288 0.00000002684835465061
57700 99.04365 106.12316 1.06047 100.07165 0.00000004701031741661
57800 99.04522 106.11909 1.06040 100.07478 0.00000002676334531770
57900 99.04611 106.18841 1.06109 100.07477 -0.00000000337611538725
58000 99.04735 106.09097 1.06009 100.07721 -0.00000000412316580878
58100 99.04895 106.10426 1.06022 100.07759 -0.00000001400331939294
58200 99.04849 105.99602 1.05913 100.07821 -0.00000003916346713595
58300 99.04842 105.88894 1.05807 100.07760 -0.00000004808487119590
58400 99.04920 105.80798 1.05728 100.07599 -0.00000004996051927719
58500 99.04506 105.66651 1.05589 100.07357 -0.00000002802099174914
58600 99.03890 105.51326 1.05439 100.07084 -0.00000000139208111705
58700 99.03794 105.40711 1.05334 100.06930 -0.00000000302240721339
58800 99.03642 105.31047 1.05238 100.06876 0.00000000634135233213
58900 99.03612 105.20808 1.05136 100.06808 0.00000002703849588670
59000 99.03704 105.16613 1.05094 100.06832 0.00000001725980780520
59100 99.03665 105.04572 1.04975 100.06756 0.00000000053435655900
59200 99.03419 104.90887 1.04838 100.06767 -0.00000001308622188390
59300 99.03570 104.98326 1.04907 100.07231 -0.00000001791467241219
59400 99.03517 104.97288 1.04900 100.06958 -0.00000002256278719415
59500 99.03380 104.86060 1.04789 100.06815 0.00000000543700195976
59600 99.02925 104.73507 1.04666 100.06624 -0.00000001280648120883
59700 99.02461 104.60411 1.04538 100.06343 0.00000000028482816106
59800 99.02254 104.49126 1.04427 100.06181 0.00000000204828154438
59900 99.02085 104.37194 1.04308 100.06098 -0.00000003038675799871
60000 99.02252 104.46158 1.04395 100.06415 -0.00000003512802493333
60100 99.02336 104.47627 1.04411 100.06295 -0.00000005532403690722
60200 99.02432 104.41900 1.04352 100.06439 -0.00000005208795528233
60300 99.02340 104.35219 1.04284 100.06566 -0.00000006968585353206
60400 99.02351 104.24944 1.04182 100.06497 -0.00000007963551240664
60500 99.02290 104.15945 1.04093 100.06359 -0.00000007059182394187
60600 99.02308 104.23780 1.04170 100.06540 -0.00000005280594450596
60700 99.02193 104.13006 1.04062 100.06521 -0.00000004340128612057
60800 99.02329 104.09182 1.04022 100.06760 -0.00000007942793445181
60900 99.02487 104.26670 1.04195 100.06905 -0.00000008077334712198
61000 99.02352 104.21916 1.04151 100.06562 -0.00000008319764788212
61100 99.02334 104.12041 1.04051 100.06704 -0.00000008455744193725
61200 99.02492 104.12890 1.04056 100.07021 -0.00000011201659333437
61300 99.02619 104.05842 1.03985 100.07060 -0.00000010892020441133
61400 99.02643 104.03373 1.03960 100.07111 -0.00000013530869580336
61500 99.02675 103.91886 1.03843 100.07288 -0.00000014765494427138
61600 99.02752 103.82841 1.03751 100.07432 -0.00000011421278145463
61700 99.02774 103.72881 1.03653 100.07272 -0.00000011720962334039
61800 99.02305 103.59522 1.03523 100.06990 -0.00000008693041309016
61900 99.02052 103.48024 1.03409 100.06934 -0.00000012207647159812
62000 99.02059 103.38673 1.03315 100.06984 -0.00000014266598213908
62100 99.01958 103.29143 1.03219 100.07010 -0.00000018214610975065
62200 99.01952 103.28069 1.03207 100.07180 -0.00000020536056410947
62300 99.01756 103.20060 1.03129 100.06950 -0.00000021843943898148
62400 99.01734 103.09798 1.03027 100.06881 -0.00000019951740171109
62500 99.01803 103.03645 1.02966 100.06835 -0.00000019640431503376
62600 99.01742 102.97852 1.02911 100.06540 -0.00000016572646188706
62700 99.01839 103.03005 1.02958 100.06960 -0.00000017371077376538
62800 99.01995 103.17211 1.03101 100.06890 -0.00000017778511107736
62900 99.02072 103.15408 1.03084 100.06846 -0.00000017198722446210
63000 99.02226 103.18273 1.03114 100.06630 -0.00000017411024089142
63100 99.02299 103.11726 1.03049 100.06585 -0.00000019808662443666
63200 99.02191 103.00484 1.02940 100.06275 -0.00000021585989884443
63300 99.02256 102.92499 1.02859 100.06434 -0.00000020502633901742
63400 99.02311 102.87993 1.02814 100.06413 -0.00000018402016621621
63500 99.02463 102.95290 1.02885 100.06635 -0.00000018078758046158
63600 99.02450 103.06802 1.03004 100.06215 -0.00000016750057341142
63700 99.02444 103.02787 1.02964 100.06217 -0.00000019196805567390
63800 99.02283 102.94796 1.02882 100.06368 -0.00000017478083691458
63900 99.02038 102.82057 1.02755 100.06362 -0.00000014024971051185
64000 99.01760 102.70196 1.02640 100.06066 -0.00000014402259296276
64100 99.01818 102.65848 1.02597 100.06005 -0.00000013807971299684
64200 99.01973 102.68239 1.02622 100.05850 -0.00000014757659982934
64300 99.02097 102.63756 1.02576 100.05972 -0.00000014040384144209
64400 99.02151 102.62199 1.02561 100.05941 -0.00000011677282429901
64500 99.02263 102.57653 1.02515 100.05975 -0.00000010491335444840
64600 99.02406 102.57924 1.02517 100.06108 -0.00000008951433017046
64700 99.02228 102.48042 1.02419 100.05964 -0.00000008802783213469
64800 99.01772 102.35934 1.02300 100.05785 -0.00000007156640435824
64900 99.01549 102.23905 1.02179 100.05866 -0.00000008513828220202
65000 99.01563 102.15317 1.02092 100.05972 -0.00000006488822634765
65100 99.01401 102.08126 1.02021 100.05908 -0.00000005599086705388
65200 99.01126 101.95833 1.01899 100.05778 -0.00000006554485310062
65300 99.01281 102.17655 1.02117 100.05871 -0.00000008073344304194
65400 99.01325 102.16217 1.02101 100.05976 -0.00000007953758540680
65500 99.01412 102.07701 1.02017 100.05895 -0.00000008643465321256
65600 99.01182 101.97313 1.01914 100.05797 -0.00000010326218102819
65700 99.00922 101.88262 1.01824 100.05711 -0.00000011359445295511
65800 99.01068 101.85256 1.01795 100.05676 -0.00000011591650661558
65900 99.00910 101.75901 1.01703 100.05530 -0.00000011076056694037
66000 99.00638 101.64862 1.01593 100.05505 -0.00000011199250593563
66100 99.00379 101.55643 1.01503 100.05301 -0.00000011050421733216
66200 99.00450 101.50155 1.01447 100.05364 -0.00000008679081986429
66300 99.00519 101.44718 1.01392 100.05437 -0.00000008253212513409
66400 99.00625 101.40908 1.01351 100.05748 -0.00000007665269663448
66500 99.00508 101.31213 1.01254 100.05746 -0.00000006762542170691
66600 99.00534 101.24044 1.01182 100.05751 -0.00000004916532247989
66700 99.00681 101.24493 1.01188 100.05597 -0.00000003312767660191
66800 99.00200 101.13818 1.01086 100.05135 -0.00000000991551019069
66900 98.99872 101.02132 1.00971 100.04994 -0.00000003218225685941
67000 98.99411 100.90874 1.00861 100.04716 -0.00000001327548204699
67100 98.99292 100.81925 1.00772 100.04666 -0.00000002406638088814
67200 98.99178 100.73863 1.00692 100.04658 -0.00000002845717972377
67300 98.99332 100.72823 1.00680 100.04774 -0.00000002192372505760
67400 98.99477 100.73604 1.00687 100.04902 -0.00000002883029992518
67500 98.99626 100.84149 1.00791 100.04967 -0.00000002173476332246
67600 98.99775 100.99937 1.00948 100.05087 -0.00000000359983687304
67700 98.99925 101.27792 1.01224 100.05359 0.00000001552844253183
67800 99.00070 101.52729 1.01475 100.05159 0.00000000402989996928
67900 99.00218 101.54989 1.01496 100.05340 -0.00000000338714301051
68000 99.00363 101.49669 1.01442 100.05368 -0.00000002597477077870
68100 99.00306 101.40893 1.01356 100.05232 -0.00000001837024399265
68200 99.00214 101.36116 1.01305 100.05516 0.00000000203041850000
68300 99.00158 101.35381 1.01298 100.05520 -0.00000002451584180108
68400 98.99876 101.23662 1.01183 100.05325 -0.00000001161028251317
68500 98.99877 101.21722 1.01164 100.05292 -0.00000000204778416446
68600 98.99774 101.12551 1.01074 100.05138 -0.00000000138935263294
68700 98.99780 101.04569 1.00995 100.05022 0.00000000760107354836
68800 98.99590 100.93410 1.00883 100.05036 0.00000000638002006781
68900 98.99734 100.92509 1.00874 100.05042 0.00000002215244876425
69000 98.99879 101.09058 1.01037 100.05257 0.00000003713473972766
69100 99.00023 101.30259 1.01250 100.05216 0.00000004727043290131
69200 99.00168 101.36991 1.01318 100.05169 0.00000003547913252078
69300 99.00161 101.34614 1.01293 100.05240 0.00000004217646676352
69400 99.00306 101.39434 1.01341 100.05229 0.00000004650441098875
69500 99.00277 101.30852 1.01257 100.05085 0.00000006293095111687
69600 99.00337 101.27890 1.01229 100.04932 0.00000004655760221794
69700 99.00479 101.45532 1.01403 100.05195 0.00000003956091632062
69800 99.00622 101.63716 1.01587 100.04946 0.00000002161453949157
69900 99.00535 101.56321 1.01512 100.05000 0.00000000116101261938
70000 99.00570 101.49447 1.01445 100.04839 -0.00000001339560640190
70100 99.00559 101.41505 1.01367 100.04698 -0.00000003469047271665
70200 99.00570 101.33323 1.01286 100.04644 -0.00000003555986438641
70300 99.00311 101.23935 1.01196 100.04310 -0.00000001557319251333
70400 99.00402 101.25667 1.01212 100.04446 -0.00000001708477270768
70500 99.00543 101.37881 1.01333 100.04559 -0.00000003797073588885
70600 99.00684 101.81633 1.01769 100.04676 -0.00000001088380940928
70700 99.00823 102.27756 1.02229 100.04774 0.00000000239288056036
70800 99.00963 102.60796 1.02559 100.04822 -0.00000000098997077203
70900 99.01104 102.96071 1.02909 100.04994 0.00000000506047115323
71000 99.01245 103.15283 1.03102 100.04973 0.00000000268846633844
71100 99.01385 103.29133 1.03238 100.05150 -0.00000000352736151399
71200 99.01520 103.52345 1.03468 100.05343 -0.00000001245345515599
71300 99.01455 103.52219 1.03470 100.05055 -0.00000002047249836323
71400 99.01592 103.59676 1.03542 100.05270 -0.00000002710082469548
71500 99.01447 103.52612 1.03473 100.05115 -0.00000002660334530447
71600 99.01587 103.48421 1.03432 100.05080 -0.00000002411780997136
71700 99.01722 103.60592 1.03550 100.05421 -0.00000003121262182049
71800 99.01859 103.69810 1.03642 100.05382 -0.00000001181486197765
71900 99.01952 103.75445 1.03700 100.05292 0.00000000015191403691
72000 99.01885 103.68318 1.03627 100.05390 0.00000000540582334452
72100 99.01622 103.60951 1.03556 100.05175 0.00000003189691710759
72200 99.01667 103.57740 1.03523 100.05278 0.00000004011373277990
72300 99.01552 103.50589 1.03452 100.05249 0.00000003334349685247
72400 99.01559 103.42633 1.03373 100.05191 0.00000004415856835749
72500 99.01330 103.31589 1.03262 100.05252 0.00000005750705156515
72600 99.01195 103.21268 1.03159 100.05190 0.00000004694305744124
72700 99.01145 103.12373 1.03069 100.05279 0.00000002219167072326
72800 99.01141 103.05269 1.03000 100.05163 -0.00000000432338254086
72900 99.01277 103.05329 1.03000 100.05200 0.00000000306231129343
73000 99.00941 102.93144 1.02879 100.05066 0.00000000523429832811
73100 99.00736 102.82666 1.02776 100.04921 -0.00000000443641567927
73200 99.00871 102.78277 1.02732 100.04969 -0.00000001077098943369
73300 99.00938 102.71068 1.02658 100.05111 -0.00000003123007275008
73400 99.01073 102.77872 1.02724 100.05341 -0.00000003435252438067
73500 99.01208 103.01437 1.02960 100.05299 -0.00000003057088804326
73600 99.01343 103.37162 1.03318 100.05193 -0.00000001472555766213
73700 99.01477 103.42830 1.03375 100.05142 -0.00000002364804174704
73800 99.01265 103.34365 1.03292 100.05005 -0.00000002556895140060
73900 99.01221 103.25014 1.03200 100.04896 -0.00000003123776082248
74000 99.01067 103.18907 1.03138 100.04991 -0.00000003817021365649
74100 99.01041 103.12002 1.03067 100.05175 -0.00000006223552873053
74200 99.01027 103.02961 1.02976 100.05204 -0.00000002891728456689
74300 99.00879 102.92177 1.02871 100.04937 -0.00000000417220746840
74400 99.00931 102.86565 1.02814 100.05031 -0.00000005384110579598
74500 99.00972 102.79388 1.02741 100.05129 -0.00000006764109627966
74600 99.00991 102.84913 1.02796 100.05192 -0.00000003952440863486
74700 99.01079 102.83382 1.02782 100.05086 0.00000001256672987893
74800 99.00991 102.74151 1.02688 100.05199 -0.00000000780562459113
74900 99.00823 102.67235 1.02621 100.05025 0.00000001628201573567
75000 99.00912 102.59817 1.02546 100.05077 0.00000002182781599913
75100 99.00913 102.54333 1.02493 100.04957 0.00000002926401521108
75200 99.00859 102.48399 1.02433 100.04943 0.00000005732945851378
75300 99.00991 102.63788 1.02586 100.05036 0.00000005423541438176
75400 99.01124 102.91699 1.02865 100.05057 0.00000004629480088170
75500 99.01252 103.05473 1.03002 100.05142 0.00000004513928786309
75600 99.01384 103.20908 1.03156 100.05118 0.00000003846902529858
75700 99.01339 103.13717 1.03085 100.05055 0.00000001121125592363
75800 99.01429 103.09939 1.03045 100.05268 0.00000002931906806225
75900 99.01560 103.08107 1.03026 100.05320 0.00000002559933420798
76000 99.01682 103.04589 1.02989 100.05503 -0.00000000775845876433
76100 99.01811 103.09429 1.03037 100.05547 -0.00000002832194923030
76200 99.01873 103.06571 1.03009 100.05472 -0.00000004515419504969
76300 99.01787 102.97865 1.02923 100.05412 -0.00000005753237530826
76400 99.01634 102.88377 1.02830 100.05271 -0.00000005364351807202
76500 99.01480 102.82245 1.02769 100.05196 -0.00000002685770539301
76600 99.01486 102.75537 1.02702 100.05197 -0.00000001830410667480
76700 99.01451 102.67696 1.02625 100.05039 -0.00000002859617609374
76800 99.01427 102.64230 1.02591 100.04995 -0.00000009284663349263
76900 99.01554 102.65416 1.02605 100.04827 -0.00000003316965546674
77000 99.01630 102.60168 1.02552 100.04842 0.00000002342390814647
77100 99.01369 102.49151 1.02443 100.04755 0.00000003470421461316
77200 99.01150 102.39514 1.02348 100.04652 0.00000003699013007008
77300 99.01032 102.30405 1.02257 100.04627 0.00000000542229372513
77400 99.01013 102.21357 1.02168 100.04479 -0.00000001274827354791
77500 99.00871 102.13406 1.02090 100.04320 -0.00000005360668353660
77600 99.00789 102.05343 1.02009 100.04326 -0.00000007709886062912
77700 99.00798 102.06167 1.02015 100.04539 -0.00000009223933261637
77800 99.00857 102.01231 1.01968 100.04386 -0.00000012244449010268
77900 99.00795 101.94050 1.01895 100.04479 -0.00000015307387002395
78000 99.00922 102.03437 1.01988 100.04518 -0.00000016280854708839
78100 99.00877 101.98165 1.01938 100.04294 -0.00000017327290890989
78200 99.00389 101.86911 1.01827 100.04150 -0.00000016229641630616
78300 99.00314 101.80019 1.01757 100.04255 -0.00000017712338262754
78400 99.00441 101.89342 1.01851 100.04152 -0.00000016800154867269
78500 99.00569 101.94735 1.01904 100.04256 -0.00000016574060168750
78600 99.00695 101.96616 1.01923 100.04257 -0.00000019438206777522
78700 99.00821 101.99094 1.01948 100.04236 -0.00000021780458325793
78800 99.00949 102.22549 1.02180 100.04456 -0.00000027312800909840
78900 99.01072 102.71292 1.02667 100.04437 -0.00000027484334452765
79000 99.01198 102.98422 1.02940 100.04296 -0.00000027494876064793
79100 99.01322 103.02691 1.02985 100.04096 -0.00000029209083152182
79200 99.01447 103.10444 1.03060 100.04327 -0.00000027553487313980
79300 99.01573 103.30041 1.03256 100.04301 -0.00000024831111034018
79400 99.01696 103.30738 1.03263 100.04281 -0.00000023672750160131
79500 99.01819 103.37473 1.03329 100.04436 -0.00000022633544460859
79600 99.01943 103.44330 1.03399 100.04290 -0.00000025025339311924
79700 99.02066 103.51902 1.03474 100.04312 -0.00000024440564061479
79800 99.01794 103.43437 1.03392 100.04132 -0.00000030995006738976
79900 99.01683 103.36558 1.03325 100.03965 -0.00000032345744216400
80000 99.01587 103.28424 1.03245 100.03827 -0.00000035532058006993
80100 99.01626 103.25874 1.03218 100.03958 -0.00000035195149905576
80200 99.01746 103.40563 1.03365 100.03895 -0.00000032079219636216
80300 99.01849 103.42510 1.03385 100.03842 -0.00000024537423826132
80400 99.01752 103.35088 1.03311 100.03816 -0.00000022770178986775
80500 99.01567 103.26224 1.03224 100.03706 -0.00000022824438872249
80600 99.01538 103.23117 1.03192 100.03752 -0.00000027182855433239
80700 99.01484 103.21224 1.03175 100.03636 -0.00000030197892897377
80800 99.01307 103.12228 1.03088 100.03361 -0.00000028420383557659
80900 99.01429 103.28564 1.03249 100.03557 -0.00000031671571321112
81000 99.01551 103.42064 1.03384 100.03517 -0.00000028498682524969
81100 99.01553 103.34953 1.03313 100.03562 -0.00000025875687015287
81200 99.01548 103.27104 1.03234 100.03591 -0.00000021962166840694
81300 99.01461 103.18673 1.03152 100.03407 -0.00000021525171689518
81400 99.01218 103.09278 1.03059 100.03305 -0.00000024390590169787
81500 99.01234 103.06081 1.03025 100.03429 -0.00000024226369532698
81600 99.01354 103.18825 1.03151 100.03604 -0.00000021163407382119
81700 99.01479 103.22609 1.03189 100.03618 -0.00000021670885530511
81800 99.01584 103.18368 1.03145 100.03785 -0.00000023171963903224
81900 99.01705 103.31867 1.03277 100.04039 -0.00000022004846300661
82000 99.01825 103.48256 1.03442 100.03945 -0.00000023139321569943
82100 99.01726 103.38495 1.03346 100.03812 -0.00000024017464284043
82200 99.01792 103.34695 1.03306 100.03966 -0.00000023544872362891
82300 99.01890 103.32054 1.03279 100.03983 -0.00000022450780079453
82400 99.01850 103.28350 1.03241 100.04083 -0.00000020616454321498
82500 99.01910 103.29064 1.03249 100.04041 -0.00000018528938028339
82600 99.02006 103.31364 1.03272 100.04024 -0.00000021484076739853
82700 99.01726 103.21175 1.03173 100.03798 -0.00000023264369986009
82800 99.01452 103.11892 1.03080 100.03792 -0.00000024537938259073
82900 99.01355 103.05643 1.03018 100.03727 -0.00000025818459903348
83000 99.01141 102.97002 1.02934 100.03482 -0.00000024413424171144
83100 99.01109 102.93198 1.02898 100.03282 -0.00000021765463031898
83200 99.01227 103.02244 1.02988 100.03338 -0.00000021385436355104
83300 99.01273 103.04440 1.03012 100.03128 -0.00000023894951084458
83400 99.01178 102.95608 1.02923 100.03213 -0.00000022415102307605
83500 99.01094 102.86476 1.02832 100.03154 -0.00000022311334646474
83600 99.01033 102.78556 1.02753 100.03124 -0.00000020294883995575
83700 99.00794 102.71026 1.02681 100.02894 -0.00000017355418435727
83800 99.00864 102.74622 1.02714 100.03167 -0.00000018732694684331
83900 99.00979 102.76485 1.02733 100.03112 -0.00000020188875282656
84000 99.00789 102.67556 1.02646 100.02883 -0.00000022679674316350
84100 99.00863 102.64520 1.02614 100.02993 -0.00000020381010301662
84200 99.00945 102.66033 1.02630 100.02952 -0.00000022233932384097
84300 99.01062 102.63147 1.02601 100.02940 -0.00000020625633112559
84400 99.00988 102.54994 1.02521 100.02814 -0.00000019586596522458
84500 99.00858 102.47384 1.02444 100.02914 -0.00000019116447447232
84600 99.00902 102.43655 1.02406 100.03021 -0.00000022309424707601
84700 99.00731 102.35199 1.02322 100.02914 -0.00000022414410238980
84800 99.00739 102.26424 1.02234 100.02949 -0.00000023467842424907
84900 99.00734 102.19604 1.02166 100.02936 -0.00000025159329197777
85000 99.00417 102.09660 1.02068 100.02794 -0.00000030175489484918
85100 99.00445 102.03881 1.02012 100.02665 -0.00000032542888561693
85200 99.00265 101.95369 1.01927 100.02588 -0.00000028534884677356
85300 99.00051 101.86440 1.01840 100.02400 -0.00000025714192020132
85400 98.99949 101.80097 1.01779 100.02162 -0.00000019198559186862
85500 98.99966 101.74343 1.01722 100.02111 -0.00000021620897427965
85600 98.99985 101.70865 1.01686 100.02242 -0.00000017725724887896
85700 99.00102 101.94072 1.01917 100.02335 -0.00000020619991403237
85800 99.00218 102.07754 1.02054 100.02302 -0.00000024099901452246
85900 99.00333 102.17615 1.02152 100.02348 -0.00000026488434912153
86000 99.00212 102.09619 1.02075 100.02113 -0.00000028921823513883
86100 99.00258 102.02274 1.02001 100.02098 -0.00000026936974961700
86200 99.00371 102.01076 1.01990 100.02073 -0.00000026360018523519
86300 99.00446 101.94992 1.01928 100.02108 -0.00000026453517421032
86400 99.00211 101.86634 1.01846 100.01975 -0.00000024745952487137
86500 99.00273 101.80526 1.01786 100.01894 -0.00000024525223807359
86600 99.00381 101.75561 1.01735 100.01997 -0.00000018759541831059
86700 99.00497 101.79941 1.01779 100.02048 -0.00000021107840098011
86800 99.00547 101.75450 1.01732 100.02173 -0.00000019945829876633
86900 99.00585 101.71261 1.01692 100.02071 -0.00000019729540667868
87000 99.00533 101.64417 1.01623 100.02036 -0.00000015198213532130
87100 99.00465 101.56338 1.01543 100.02034 -0.00000016154196202933
87200 99.00556 101.56178 1.01540 100.02106 -0.00000020256280208741
87300 99.00644 101.56657 1.01545 100.02105 -0.00000018088924491622
87400 99.00520 101.48365 1.01462 100.02102 -0.00000016547602399442
87500 99.00455 101.40069 1.01381 100.01977 -0.00000016449952511266
87600 99.00560 101.45580 1.01436 100.01998 -0.00000020246099552423
87700 99.00642 101.43721 1.01417 100.02003 -0.00000018596385586989
87800 99.00643 101.37655 1.01356 100.02024 -0.00000019162550302099
87900 99.00759 101.39335 1.01372 100.02067 -0.00000017275343111578
88000 99.00788 101.35125 1.01331 100.02039 -0.00000020042841697432
88100 99.00760 101.27526 1.01255 100.02008 -0.00000020928582955548
88200 99.00775 101.22551 1.01205 100.02031 -0.00000020224294416948
88300 99.00565 101.14159 1.01122 100.01951 -0.00000023473546661990
88400 99.00393 101.06063 1.01040 100.02023 -0.00000021265033467444
88500 99.00255 100.99907 1.00981 100.01775 -0.00000020770696096406
88600 99.00189 100.95042 1.00934 100.01632 -0.00000021741671218933
88700 99.00108 100.87693 1.00861 100.01558 -0.00000022866390736453
88800 99.00022 100.80750 1.00791 100.01622 -0.00000026104487460543
88900 98.99980 100.78871 1.00773 100.01580 -0.00000024442674373404
89000 98.99960 100.71532 1.00700 100.01524 -0.00000025399516800917
89100 99.00073 100.77603 1.00760 100.01590 -0.00000020502385211785
89200 99.00186 100.93921 1.00921 100.01785 -0.00000021264999361392
89300 99.00296 101.07494 1.01055 100.01934 -0.00000022088669027198
89400 99.00408 101.47874 1.01457 100.02150 -0.00000026274234699031
89500 99.00519 101.92082 1.01899 100.02145 -0.00000027006770153548
89600 99.00630 102.35309 1.02330 100.02230 -0.00000030391126415452
89700 99.00742 102.62417 1.02602 100.02204 -0.00000029538587398292
89800 99.00852 102.88341 1.02861 100.02219 -0.00000027903323029932
89900 99.00962 103.13616 1.03112 100.02298 -0.00000029193826378560
90000 99.01075 103.43856 1.03412 100.02581 -0.00000031213885165471
90100 99.01182 103.64167 1.03616 100.02445 -0.00000032160821206162
90200 99.01242 103.66245 1.03638 100.02365 -0.00000031163820324309
90300 99.01269 103.60716 1.03582 100.02409 -0.00000029795329226090
90400 99.01128 103.52002 1.03496 100.02320 -0.00000032584968323590
90500 99.00785 103.42249 1.03401 100.02122 -0.00000030836640974030
90600 99.00579 103.37391 1.03352 100.02121 -0.00000030683155216593
90700 99.00690 103.42167 1.03398 100.02276 -0.00000028349018066365
90800 99.00578 103.34484 1.03323 100.02160 -0.00000029988261474045
90900 99.00590 103.32512 1.03303 100.02166 -0.00000027693830872977
91000 99.00664 103.31859 1.03296 100.02149 -0.00000026985614454134
91100 99.00716 103.35460 1.03333 100.02113 -0.00000025187735275267
91200 99.00505 103.28561 1.03265 100.02021 -0.00000021726916088483
91300 99.00421 103.20390 1.03184 100.01936 -0.00000022586496584154
91400 99.00405 103.20269 1.03183 100.01912 -0.00000020361795805002
91500 99.00513 103.22664 1.03207 100.01923 -0.00000020354949015200
91600 99.00549 103.17087 1.03151 100.01964 -0.00000022943811472942
91700 99.00538 103.14240 1.03121 100.02077 -0.00000022029578872207
91800 99.00435 103.07288 1.03054 100.01840 -0.00000020397109778969
91900 99.00450 103.00193 1.02983 100.01850 -0.00000023688269834565
92000 99.00295 102.91574 1.02897 100.01846 -0.00000024633202144742
92100 99.00403 102.90189 1.02883 100.01870 -0.00000024980307955502
92200 99.00491 102.88756 1.02869 100.01799 -0.00000024177469981623
92300 99.00600 102.89190 1.02873 100.01820 -0.00000021428044760796
92400 99.00548 102.82193 1.02802 100.01913 -0.00000018305232174498
92500 99.00657 102.88347 1.02863 100.01990 -0.00000019654309824091
92600 99.00766 102.95206 1.02933 100.01895 -0.00000021302948027824
92700 99.00737 102.87419 1.02855 100.01834 -0.00000021638997793616
92800 99.00710 102.80378 1.02784 100.01879 -0.00000024831962264216
92900 99.00816 102.80202 1.02781 100.02024 -0.00000026658604213026
93000 99.00926 102.87943 1.02858 100.02044 -0.00000024658585573434
93100 99.00737 102.81299 1.02794 100.01834 -0.00000026145912102038
93200 99.00722 102.74377 1.02724 100.01894 -0.00000025073073572912
93300 99.00828 102.82893 1.02810 100.01859 -0.00000025446465201640
93400 99.00934 102.84394 1.02825 100.01843 -0.00000027462333207495
93500 99.00903 102.80712 1.02788 100.01862 -0.00000032289761975335
93600 99.00862 102.76534 1.02746 100.01896 -0.00000036192683694480
93700 99.00860 102.70111 1.02684 100.01710 -0.00000036803572811550
93800 99.00902 102.68440 1.02668 100.01588 -0.00000038822707892905
93900 99.01002 102.64117 1.02624 100.01703 -0.00000036799272606913
94000 99.01106 102.62692 1.02608 100.01845 -0.00000038309357819344
94100 99.01154 102.56470 1.02546 100.01831 -0.00000036883444920477
94200 99.01225 102.59584 1.02575 100.02011 -0.00000034564092743494
94300 99.01160 102.61810 1.02600 100.01785 -0.00000031632320940389
94400 99.01007 102.55174 1.02535 100.01677 -0.00000028111858796365
94500 99.01099 102.52820 1.02510 100.01778 -0.00000026682997145144
94600 99.01150 102.52460 1.02506 100.01839 -0.00000029161877534989
94700 99.01225 102.47756 1.02458 100.01948 -0.00000029374004384408
94800 99.01127 102.43262 1.02412 100.01998 -0.00000026476554637611
94900 99.01141 102.39550 1.02375 100.01997 -0.00000023064615106705
95000 99.01243 102.42955 1.02409 100.01987 -0.00000025632216704707
95100 99.01176 102.37494 1.02356 100.01809 -0.00000027937009861034
95200 99.01144 102.31289 1.02295 100.01793 -0.00000029763283748707
95300 99.01106 102.26717 1.02247 100.01934 -0.00000030934815242745
95400 99.01149 102.24225 1.02223 100.01916 -0.00000027595002904945
95500 99.01195 102.19354 1.02172 100.02117 -0.00000027389030776703
95600 99.01154 102.14116 1.02120 100.02076 -0.00000026992651669389
95700 99.01056 102.09175 1.02071 100.02066 -0.00000025681184467885
95800 99.01076 102.05697 1.02035 100.02183 -0.00000025866121688978
95900 99.01173 102.04115 1.02018 100.02283 -0.00000028224299342128
96000 99.00935 101.97003 1.01949 100.02017 -0.00000033413965638829
96100 99.00891 101.90023 1.01879 100.02069 -0.00000037819894771474
96200 99.00792 101.83500 1.01814 100.02018 -0.00000036231315903024
96300 99.00637 101.75523 1.01736 100.01934 -0.00000040157080150038
96400 99.00726 101.73196 1.01712 100.01955 -0.00000039162509324342
96500 99.00612 101.67679 1.01657 100.01931 -0.00000041310570964015
96600 99.00698 101.67871 1.01659 100.01969 -0.00000040408677648429
96700 99.00639 101.63409 1.01613 100.02087 -0.00000039440593013751
96800 99.00742 101.64600 1.01624 100.02186 -0.00000035982986901217
96900 99.00677 101.56691 1.01545 100.02136 -0.00000035334039694135
97000 99.00777 101.69493 1.01671 100.02381 -0.00000036950126514057
97100 99.00880 101.78754 1.01764 100.02359 -0.00000037422573484491
97200 99.00910 101.77207 1.01748 100.02360 -0.00000039694545250768
97300 99.00928 101.73725 1.01713 100.02364 -0.00000042197449090509
97400 99.00990 101.69154 1.01667 100.02445 -0.00000040556821545579
97500 99.01011 101.65724 1.01632 100.02517 -0.00000040236537302007
97600 99.00996 101.61534 1.01589 100.02570 -0.00000037907014416305
97700 99.00930 101.56037 1.01532 100.02757 -0.00000040995023198320
97800 99.00846 101.49965 1.01471 100.02807 -0.00000039921015115851
97900 99.00949 101.45704 1.01429 100.02809 -0.00000040114835542227
98000 99.01049 101.43042 1.01403 100.02710 -0.00000039795902750939
98100 99.01081 101.37672 1.01349 100.02700 -0.00000038056907669670
98200 99.00920 101.30158 1.01275 100.02632 -0.00000041244456383538
98300 99.00882 101.23980 1.01214 100.02566 -0.00000038735755936159
98400 99.00880 101.18561 1.01160 100.02563 -0.00000039847682842264
98500 99.00981 101.17890 1.01154 100.02509 -0.00000037914327322142
98600 99.01081 101.28283 1.01256 100.02687 -0.00000038584657602314
98700 99.01179 101.47136 1.01443 100.02791 -0.00000036592561514226
98800 99.01279 101.59218 1.01563 100.02865 -0.00000036278063930695
98900 99.01346 101.57192 1.01543 100.02894 -0.00000034522926739555
99000 99.01120 101.48933 1.01461 100.02776 -0.00000034844038054871
99100 99.01168 101.47056 1.01441 100.02873 -0.00000037284628717771
99200 99.00978 101.39149 1.01364 100.02728 -0.00000036202590081302
99300 99.01049 101.34318 1.01315 100.02827 -0.00000034857042408021
99400 99.01061 101.28110 1.01252 100.02875 -0.00000035503650508417
99500 99.00813 101.20338 1.01176 100.02701 -0.00000036148806259462
99600 99.00770 101.12911 1.01102 100.02639 -0.00000033782008301841
99700 99.00779 101.10109 1.01075 100.02629 -0.00000032795954041376
99800 99.00614 101.02688 1.01001 100.02605 -0.00000032706810770833
99900 99.00617 100.98597 1.00960 100.02620 -0.00000027053481232997
100000 99.00525 100.92427 1.00898 100.02648 -0.00000025185553909068
